#!2theta	Int
#
0.00000	3.60000
0.00530	18.66768
0.01060	19.63798
0.01590	16.85428
0.02120	13.75162
0.02650	14.24186
0.03180	15.00000
0.03710	14.38314
0.04240	17.69276
0.04770	21.22868
0.05300	19.54624
0.05830	21.06336
0.06360	18.86658
0.06890	14.29304
0.07420	13.78466
0.07950	18.81000
0.08480	21.36464
0.09010	20.78440
0.09540	20.71106
0.10070	19.18628
0.10601	15.21436
0.11131	13.53960
0.11661	10.76042
0.12191	13.51184
0.12721	17.91112
0.13251	17.21724
0.13781	16.34236
0.14311	16.71998
0.14841	14.63250
0.15371	14.74854
0.15901	16.01660
0.16431	13.51606
0.16961	15.68894
0.17491	17.66014
0.18021	15.19650
0.18551	16.53278
0.19081	16.71642
0.19611	15.08850
0.20141	16.61456
0.20671	16.10090
0.21201	13.50954
0.21731	13.74294
0.22261	13.69870
0.22791	13.94480
0.23321	14.88904
0.23851	15.50324
0.24381	17.83394
0.24911	17.82598
0.25441	16.34488
0.25971	16.43062
0.26501	16.10870
0.27031	14.99746
0.27561	14.92172
0.28091	17.38130
0.28621	19.88246
0.29151	21.26038
0.29681	22.06028
0.30211	23.35148
0.30741	24.80040
0.31271	26.02974
0.31801	23.83576
0.32331	24.63302
0.32861	26.21774
0.33391	27.35718
0.33921	29.61674
0.34451	32.19330
0.34981	36.14146
0.35511	35.01418
0.36041	33.17174
0.36571	32.91238
0.37101	34.65120
0.37631	34.75602
0.38161	34.75040
0.38691	38.66466
0.39221	40.46536
0.39751	41.65674
0.40281	41.87450
0.40811	40.06742
0.41341	38.05460
0.41871	39.55470
0.42401	43.55162
0.42931	46.80634
0.43461	47.82584
0.43991	43.68766
0.44521	39.04348
0.45051	38.72866
0.45581	41.27862
0.46111	43.92864
0.46641	45.93022
0.47171	49.37094
0.47701	49.31336
0.48231	50.37408
0.48761	49.52370
0.49291	48.73236
0.49821	48.95108
0.50351	46.60556
0.50881	43.88722
0.51411	42.46700
0.51941	41.83128
0.52471	44.46666
0.53001	48.79128
0.53531	52.11412
0.54061	51.86736
0.54591	51.08740
0.55121	51.52524
0.55651	53.07120
0.56181	55.23510
0.56711	57.51694
0.57241	56.77188
0.57771	58.99242
0.58301	64.02124
0.58831	66.07148
0.59361	62.70798
0.59891	62.46494
0.60421	64.59678
0.60951	64.88012
0.61481	65.26316
0.62011	68.15780
0.62541	69.54766
0.63071	66.39598
0.63600	61.85876
0.64130	61.38902
0.64660	59.76590
0.65190	59.58178
0.65720	61.74732
0.66250	63.19634
0.66780	61.10888
0.67310	59.42254
0.67840	61.30756
0.68370	64.04188
0.68900	62.63468
0.69430	61.16832
0.69960	62.68970
0.70490	65.09360
0.71020	62.67168
0.71550	59.95534
0.72080	58.58584
0.72610	56.62508
0.73140	54.98874
0.73670	54.36872
0.74199	56.77334
0.74729	59.69364
0.75259	63.38624
0.75789	68.78286
0.76319	74.17680
0.76849	73.64992
0.77379	70.92292
0.77909	69.18368
0.78439	68.61476
0.78969	69.51114
0.79499	71.29734
0.80029	69.65568
0.80559	64.42526
0.81089	61.58706
0.81618	63.34108
0.82148	66.86472
0.82678	68.10184
0.83208	65.10090
0.83738	67.17636
0.84268	67.03458
0.84798	64.46464
0.85328	60.39478
0.85858	58.10372
0.86388	59.63728
0.86918	60.23828
0.87447	60.68256
0.87977	60.16176
0.88507	59.55634
0.89037	56.59542
0.89567	57.50748
0.90097	59.47456
0.90627	58.31752
0.91157	56.74870
0.91687	55.60344
0.92217	57.34828
0.92746	60.27430
0.93276	60.61824
0.93806	59.87212
0.94336	61.07558
0.94866	60.93816
0.95396	58.21362
0.95926	57.70274
0.96456	55.48102
0.96985	52.99944
0.97515	51.06934
0.98045	51.70632
0.98575	51.89142
0.99105	53.42508
0.99635	55.59220
1.00165	54.12276
1.00695	53.28732
1.01224	53.79072
1.01754	53.73856
1.02284	54.05796
1.02814	53.92242
1.03344	54.36620
1.03874	50.64476
1.04404	48.85288
1.04933	50.90618
1.05463	51.46418
1.05993	53.54934
1.06523	54.75160
1.07053	54.84176
1.07583	54.45090
1.08112	51.51204
1.08642	48.15420
1.09172	50.55144
1.09702	49.97864
1.10232	47.39862
1.10762	48.57208
1.11291	52.91980
1.11821	53.65262
1.12351	52.59212
1.12881	51.47994
1.13411	49.33770
1.13941	47.43046
1.14470	48.63888
1.15000	48.36314
1.15530	49.22326
1.16060	52.92132
1.16590	53.85720
1.17119	53.61894
1.17649	53.38876
1.18179	50.58530
1.18709	51.04472
1.19239	52.99510
1.19768	52.35728
1.20298	49.89404
1.20828	45.85856
1.21358	45.44128
1.21888	46.87718
1.22417	46.76304
1.22947	46.75000
1.23477	48.50918
1.24007	50.53802
1.24536	49.55666
1.25066	47.12666
1.25596	47.80212
1.26126	47.35666
1.26656	47.31394
1.27185	50.38404
1.27715	52.38782
1.28245	52.48556
1.28775	50.88336
1.29304	50.13906
1.29834	50.54156
1.30364	52.12500
1.30894	52.33872
1.31423	51.78696
1.31953	51.17140
1.32483	50.07654
1.33013	47.89488
1.33542	49.38786
1.34072	50.16100
1.34602	48.93258
1.35131	47.96924
1.35661	46.02836
1.36191	43.37278
1.36721	42.76468
1.37250	41.57582
1.37780	41.79506
1.38310	44.54606
1.38840	47.43260
1.39369	47.17458
1.39899	47.69892
1.40429	46.33630
1.40958	42.57322
1.41488	42.59072
1.42018	41.38726
1.42547	40.50664
1.43077	38.66052
1.43607	37.54540
1.44137	38.17600
1.44666	40.28180
1.45196	41.90386
1.45726	43.39968
1.46255	44.03490
1.46785	42.34036
1.47315	42.51052
1.47844	42.27802
1.48374	41.94726
1.48904	42.01764
1.49433	42.82002
1.49963	42.39134
1.50493	41.46666
1.51022	40.36108
1.51552	42.32542
1.52082	42.25136
1.52611	42.71028
1.53141	43.44484
1.53671	44.72000
1.54200	45.62562
1.54730	45.58860
1.55260	43.42932
1.55789	40.97404
1.56319	38.72004
1.56848	38.48042
1.57378	38.21804
1.57908	38.71046
1.58437	38.11088
1.58967	38.82510
1.59497	38.45452
1.60026	36.21550
1.60556	35.46974
1.61085	36.59796
1.61615	38.99148
1.62145	41.50108
1.62674	40.40612
1.63204	38.64758
1.63733	39.57008
1.64263	42.74142
1.64793	41.70498
1.65322	38.28066
1.65852	38.19832
1.66381	40.10056
1.66911	37.91534
1.67440	36.33616
1.67970	37.54980
1.68500	40.13086
1.69029	41.40448
1.69559	40.72388
1.70088	40.48672
1.70618	42.94762
1.71147	43.81526
1.71677	42.96446
1.72206	42.04364
1.72736	39.23534
1.73266	38.45132
1.73795	37.92802
1.74325	36.48316
1.74854	36.20808
1.75384	36.67116
1.75913	36.25512
1.76443	35.82230
1.76972	35.97914
1.77502	37.25828
1.78031	36.46976
1.78561	34.36948
1.79090	34.20128
1.79620	33.01564
1.80149	32.52556
1.80679	32.89824
1.81208	32.79894
1.81738	34.23182
1.82267	35.00628
1.82797	35.99950
1.83326	35.61122
1.83856	35.02836
1.84385	35.10288
1.84915	36.14368
1.85444	36.68456
1.85974	37.41552
1.86503	36.20534
1.87033	33.96114
1.87562	33.16392
1.88092	34.42268
1.88621	35.37388
1.89150	37.15930
1.89680	36.80908
1.90209	36.95204
1.90739	37.25566
1.91268	36.76192
1.91798	36.02028
1.92327	35.77492
1.92856	37.43646
1.93386	37.51554
1.93915	37.19516
1.94445	36.23468
1.94974	34.53694
1.95504	33.06748
1.96033	33.82772
1.96562	34.29932
1.97092	34.00920
1.97621	34.98064
1.98151	35.07672
1.98680	32.80324
1.99209	34.15308
1.99739	37.04630
2.00268	42.49992
2.00797	45.29164
2.01327	44.16408
2.01856	41.22498
2.02386	38.26576
2.02915	35.86270
2.03444	34.28266
2.03974	36.03358
2.04503	39.66934
2.05032	40.73926
2.05562	41.52106
2.06091	39.62338
2.06620	36.12092
2.07150	34.70766
2.07679	33.41382
2.08208	33.35192
2.08738	33.99256
2.09267	34.50024
2.09796	35.72272
2.10326	36.63898
2.10855	34.60114
2.11384	33.21570
2.11914	33.82684
2.12443	35.15522
2.12972	35.30362
2.13501	35.52824
2.14031	36.64098
2.14560	36.39680
2.15089	34.45488
2.15619	34.11746
2.16148	35.98912
2.16677	35.61816
2.17206	34.79112
2.17736	35.70304
2.18265	36.12890
2.18794	35.75704
2.19323	34.49008
2.19853	32.77170
2.20382	31.76286
2.20911	33.27220
2.21440	35.01194
2.21970	34.91876
2.22499	34.41132
2.23028	33.83106
2.23557	31.83282
2.24087	32.03332
2.24616	33.39656
2.25145	35.24632
2.25674	36.05566
2.26203	35.23926
2.26733	34.67636
2.27262	34.39826
2.27791	35.15064
2.28320	34.88202
2.28849	33.60218
2.29379	32.92146
2.29908	32.82322
2.30437	32.30606
2.30966	33.02452
2.31495	32.92530
2.32024	32.17368
2.32554	31.30808
2.33083	33.54092
2.33612	35.84284
2.34141	36.94394
2.34670	36.49456
2.35199	35.30288
2.35728	33.95330
2.36257	32.55366
2.36787	33.12244
2.37316	33.50132
2.37845	33.37124
2.38374	33.68938
2.38903	33.09432
2.39432	32.25552
2.39961	32.09130
2.40490	33.41044
2.41019	33.96782
2.41549	34.59178
2.42078	34.30060
2.42607	33.74686
2.43136	34.11468
2.43665	32.98588
2.44194	31.49056
2.44723	31.39152
2.45252	31.18694
2.45781	30.79662
2.46310	31.09346
2.46839	31.28976
2.47368	31.15138
2.47897	32.95830
2.48426	33.25470
2.48955	33.72504
2.49484	34.12280
2.50013	34.15948
2.50542	34.05260
2.51071	32.95422
2.51600	32.01244
2.52129	31.69068
2.52658	31.48078
2.53187	31.85436
2.53716	31.98682
2.54245	31.64260
2.54774	31.14402
2.55303	30.57770
2.55832	29.99718
2.56361	29.96104
2.56890	30.58670
2.57419	29.96408
2.57948	29.87540
2.58477	29.86046
2.59006	29.94766
2.59535	30.59968
2.60064	30.61604
2.60593	31.43824
2.61122	31.02002
2.61651	30.77314
2.62180	30.66068
2.62708	29.41268
2.63237	30.70120
2.63766	30.46622
2.64295	31.15330
2.64824	33.67400
2.65353	33.83646
2.65882	32.61820
2.66411	32.73206
2.66940	33.13338
2.67469	33.77016
2.67997	34.18734
2.68526	33.27092
2.69055	31.72930
2.69584	31.48076
2.70113	30.60062
2.70642	30.70780
2.71171	32.48930
2.71699	33.97374
2.72228	32.95706
2.72757	32.57518
2.73286	31.81476
2.73815	30.68918
2.74343	31.35598
2.74872	31.61670
2.75401	31.10832
2.75930	31.62326
2.76459	31.38546
2.76987	31.70486
2.77516	30.71950
2.78045	29.60060
2.78574	29.16318
2.79103	28.81374
2.79631	29.40562
2.80160	30.42900
2.80689	30.03254
2.81218	30.45212
2.81746	31.66440
2.82275	31.31458
2.82804	31.10334
2.83333	30.78024
2.83861	32.17630
2.84390	34.53920
2.84919	35.13850
2.85447	33.55152
2.85976	32.54858
2.86505	30.95396
2.87034	30.71394
2.87562	29.92714
2.88091	29.90138
2.88620	29.77148
2.89148	30.02354
2.89677	30.30280
2.90206	29.96390
2.90734	30.33960
2.91263	31.34210
2.91792	31.93508
2.92320	31.18860
2.92849	29.61814
2.93378	28.83162
2.93906	28.05642
2.94435	28.22610
2.94963	29.66306
2.95492	29.73422
2.96021	29.28358
2.96549	28.54292
2.97078	30.17162
2.97607	32.24302
2.98135	32.42188
2.98664	31.09714
2.99192	30.18946
2.99721	30.61640
3.00249	31.66190
3.00778	30.96946
3.01307	29.72366
3.01835	29.33898
3.02364	31.02192
3.02892	33.00130
3.03421	33.34578
3.03949	34.06972
3.04478	32.85348
3.05006	30.56948
3.05535	30.73220
3.06063	32.43894
3.06592	34.15278
3.07120	33.72014
3.07649	31.59620
3.08177	30.18128
3.08706	28.93094
3.09234	29.24474
3.09763	30.57002
3.10291	32.60366
3.10820	33.54214
3.11348	33.24100
3.11877	32.86644
3.12405	32.61852
3.12934	32.50246
3.13462	32.43176
3.13991	32.90488
3.14519	32.58224
3.15047	32.64038
3.15576	32.15538
3.16104	30.92704
3.16633	30.59168
3.17161	31.94360
3.17689	32.91424
3.18218	34.27466
3.18746	34.01444
3.19275	33.15186
3.19803	31.80340
3.20331	31.46214
3.20860	32.31308
3.21388	32.59326
3.21916	32.63658
3.22445	31.64340
3.22973	31.33532
3.23502	33.01740
3.24030	33.69762
3.24558	33.56230
3.25086	34.14400
3.25615	34.23150
3.26143	35.02322
3.26671	35.48716
3.27200	35.73876
3.27728	37.96546
3.28256	39.29314
3.28785	39.19398
3.29313	38.56432
3.29841	38.01794
3.30369	37.56766
3.30898	35.64670
3.31426	34.08430
3.31954	34.13892
3.32482	34.14466
3.33011	34.42328
3.33539	35.64774
3.34067	35.70444
3.34595	35.22732
3.35124	35.46904
3.35652	35.63092
3.36180	36.05858
3.36708	35.61748
3.37236	34.63142
3.37765	34.79656
3.38293	35.78030
3.38821	36.99966
3.39349	37.87984
3.39877	37.42652
3.40405	36.77186
3.40934	35.90828
3.41462	36.01612
3.41990	37.62268
3.42518	38.19772
3.43046	38.68950
3.43574	39.20040
3.44102	39.45730
3.44631	40.84722
3.45159	46.66406
3.45687	60.97714
3.46215	93.84906
3.46743	158.50640
3.47271	239.12020
3.47799	288.84120
3.48327	269.74840
3.48855	203.35320
3.49383	134.99020
3.49911	86.26920
3.50439	61.01272
3.50967	49.98018
3.51495	43.94220
3.52023	41.00226
3.52552	40.18430
3.53080	40.69042
3.53608	41.72260
3.54136	41.96544
3.54664	41.80714
3.55192	41.22036
3.55720	40.29070
3.56248	41.19786
3.56775	43.58336
3.57303	44.06878
3.57831	42.92432
3.58359	42.33328
3.58887	40.98222
3.59415	40.83074
3.59943	41.33552
3.60471	39.66956
3.60999	38.05902
3.61527	38.16650
3.62055	38.19356
3.62583	38.61440
3.63111	39.26384
3.63639	38.63862
3.64167	37.82350
3.64694	39.51548
3.65222	41.02910
3.65750	40.15486
3.66278	40.00342
3.66806	38.94316
3.67334	37.56596
3.67862	38.68020
3.68389	40.24702
3.68917	42.21000
3.69445	43.13336
3.69973	42.38816
3.70501	41.34408
3.71029	39.92666
3.71556	40.70532
3.72084	41.37158
3.72612	41.32352
3.73140	41.04700
3.73667	40.31326
3.74195	40.62586
3.74723	41.45324
3.75251	42.50752
3.75779	43.81318
3.76306	44.98330
3.76834	45.59824
3.77362	46.62266
3.77889	47.93678
3.78417	48.04280
3.78945	47.90230
3.79473	47.26500
3.80000	47.31966
3.80528	48.30338
3.81056	49.29698
3.81583	48.86490
3.82111	48.70914
3.82639	48.55298
3.83166	48.59186
3.83694	48.69492
3.84222	50.10736
3.84749	51.57818
3.85277	52.32190
3.85805	52.64998
3.86332	54.13472
3.86860	55.89434
3.87387	56.11984
3.87915	54.98204
3.88443	56.04446
3.88970	57.66362
3.89498	58.33862
3.90025	56.55828
3.90553	57.92956
3.91081	59.87928
3.91608	61.44896
3.92136	61.57490
3.92663	61.37708
3.93191	62.02740
3.93718	65.08228
3.94246	66.65336
3.94773	69.11912
3.95301	72.47016
3.95828	78.46120
3.96356	84.12014
3.96883	89.04372
3.97411	97.01468
3.97938	108.91386
3.98466	129.96660
3.98993	176.17820
3.99521	273.44380
4.00048	500.30240
4.00576	1033.56180
4.01103	2080.50000
4.01630	3482.66000
4.02158	4351.49000
4.02685	3939.61000
4.03213	2662.76200
4.03740	1491.62800
4.04267	768.42020
4.04795	408.58680
4.05322	244.17260
4.05850	164.72280
4.06377	124.62860
4.06904	101.91020
4.07432	89.86498
4.07959	82.97424
4.08486	76.86644
4.09014	73.89642
4.09541	71.95204
4.10068	69.77406
4.10596	67.03624
4.11123	66.23534
4.11650	67.12160
4.12178	65.61040
4.12705	63.85386
4.13232	62.58240
4.13759	60.82820
4.14287	58.06574
4.14814	56.50916
4.15341	57.03386
4.15868	55.92734
4.16396	55.96786
4.16923	55.33964
4.17450	54.64266
4.17977	52.78854
4.18504	51.58986
4.19032	50.57758
4.19559	51.03638
4.20086	50.98922
4.20613	49.10386
4.21140	46.41822
4.21668	44.87112
4.22195	44.76228
4.22722	45.03672
4.23249	45.50108
4.23776	46.15532
4.24303	44.80738
4.24830	43.33552
4.25358	42.55380
4.25885	42.29350
4.26412	42.51602
4.26939	41.62996
4.27466	41.11414
4.27993	41.14352
4.28520	40.92130
4.29047	40.73166
4.29574	40.21070
4.30101	39.27928
4.30628	38.81550
4.31155	40.61826
4.31682	41.34514
4.32209	40.46554
4.32736	38.54802
4.33263	36.60496
4.33790	36.38978
4.34317	37.56908
4.34844	38.46764
4.35371	38.00088
4.35898	36.45698
4.36425	34.82846
4.36952	34.82904
4.37479	35.30686
4.38006	35.24758
4.38533	36.30792
4.39060	36.99370
4.39587	37.62098
4.40114	37.16546
4.40641	35.89076
4.41168	35.57082
4.41694	35.22110
4.42221	34.40126
4.42748	33.53592
4.43275	32.72726
4.43802	33.63488
4.44329	35.09912
4.44856	35.91996
4.45382	35.46882
4.45909	34.19782
4.46436	32.81594
4.46963	31.42886
4.47490	30.90534
4.48016	30.92208
4.48543	31.95122
4.49070	32.68854
4.49597	32.19246
4.50124	31.62190
4.50650	30.50684
4.51177	29.92266
4.51704	30.63778
4.52231	31.74956
4.52757	32.34656
4.53284	31.18708
4.53811	30.94724
4.54337	31.65144
4.54864	31.25132
4.55391	30.50638
4.55917	30.54462
4.56444	30.98738
4.56971	31.45306
4.57497	31.66260
4.58024	31.38202
4.58551	31.10156
4.59077	30.49662
4.59604	30.56738
4.60131	30.22060
4.60657	30.70842
4.61184	30.70330
4.61710	29.78828
4.62237	29.15442
4.62764	29.86240
4.63290	30.35496
4.63817	30.20182
4.64343	29.49144
4.64870	29.32602
4.65396	29.22558
4.65923	29.85618
4.66449	30.46780
4.66976	31.13070
4.67502	30.27930
4.68029	29.96912
4.68555	29.95154
4.69082	29.49262
4.69608	29.04634
4.70135	28.25956
4.70661	28.71364
4.71188	29.35864
4.71714	29.87778
4.72241	29.18462
4.72767	28.35302
4.73294	28.17172
4.73820	27.66190
4.74346	27.79088
4.74873	27.81340
4.75399	28.22286
4.75926	29.67890
4.76452	29.56576
4.76978	27.94542
4.77505	27.25968
4.78031	27.18404
4.78557	26.32178
4.79084	26.25982
4.79610	27.26440
4.80136	27.47912
4.80663	26.83990
4.81189	26.88568
4.81715	26.96620
4.82241	27.86786
4.82768	28.09648
4.83294	27.04038
4.83820	26.32872
4.84347	25.72516
4.84873	25.36466
4.85399	25.53266
4.85925	24.78634
4.86451	24.61530
4.86978	24.56412
4.87504	24.36302
4.88030	24.77434
4.88556	25.92428
4.89082	26.86598
4.89609	27.65502
4.90135	28.83622
4.90661	29.08482
4.91187	28.81606
4.91713	27.73256
4.92239	26.72496
4.92765	27.17772
4.93292	26.94300
4.93818	26.93514
4.94344	26.78182
4.94870	26.55254
4.95396	26.08030
4.95922	25.78990
4.96448	25.61276
4.96974	25.21954
4.97500	24.94072
4.98026	25.29572
4.98552	25.51158
4.99078	25.72568
4.99604	25.83750
5.00130	25.91630
5.00656	25.98302
5.01182	25.93146
5.01708	25.21020
5.02234	24.19202
5.02760	23.85148
5.03286	23.78602
5.03812	23.22958
5.04338	23.88608
5.04864	25.47492
5.05390	26.23804
5.05916	25.49304
5.06442	25.34864
5.06967	25.64744
5.07493	25.45098
5.08019	25.47142
5.08545	25.34886
5.09071	24.25688
5.09597	24.14426
5.10123	24.37396
5.10648	24.47134
5.11174	24.60206
5.11700	24.73808
5.12226	24.75424
5.12752	25.00566
5.13277	24.61084
5.13803	24.77986
5.14329	25.33782
5.14855	25.96736
5.15381	26.53380
5.15906	26.10888
5.16432	25.26188
5.16958	25.13142
5.17483	24.98368
5.18009	24.61226
5.18535	24.99576
5.19061	24.77704
5.19586	24.89960
5.20112	25.02162
5.20638	24.49940
5.21163	25.11628
5.21689	25.07426
5.22215	25.42686
5.22740	26.40848
5.23266	27.43064
5.23791	26.79500
5.24317	25.64946
5.24843	25.11008
5.25368	24.24744
5.25894	23.10518
5.26419	23.04664
5.26945	24.17244
5.27470	24.89740
5.27996	24.89926
5.28522	24.12938
5.29047	24.57100
5.29573	24.96968
5.30098	24.61294
5.30624	23.88966
5.31149	23.78770
5.31675	23.78598
5.32200	23.88680
5.32725	24.27804
5.33251	24.80962
5.33776	24.25318
5.34302	23.79474
5.34827	24.03114
5.35353	24.29738
5.35878	24.25196
5.36403	25.11448
5.36929	25.68654
5.37454	24.66760
5.37980	23.97026
5.38505	24.93960
5.39030	25.64416
5.39556	25.55268
5.40081	25.11844
5.40606	24.72974
5.41132	23.90892
5.41657	23.59914
5.42182	24.07164
5.42708	24.85582
5.43233	24.38424
5.43758	24.96010
5.44283	25.41070
5.44809	24.57252
5.45334	24.40872
5.45859	24.91798
5.46384	25.39956
5.46909	25.31282
5.47435	24.47616
5.47960	24.55298
5.48485	24.86280
5.49010	25.55246
5.49535	25.55058
5.50061	24.94820
5.50586	24.71928
5.51111	25.35638
5.51636	25.88830
5.52161	24.90496
5.52686	24.92166
5.53211	24.70624
5.53736	24.74062
5.54262	24.75274
5.54787	24.30064
5.55312	23.83130
5.55837	23.89146
5.56362	24.28738
5.56887	24.53186
5.57412	24.40810
5.57937	24.56300
5.58462	24.65748
5.58987	24.60296
5.59512	24.05362
5.60037	23.72020
5.60562	23.56948
5.61087	23.68294
5.61612	23.61188
5.62137	23.89712
5.62662	23.73086
5.63187	23.41794
5.63711	23.60564
5.64236	23.45834
5.64761	23.81458
5.65286	24.14740
5.65811	25.21376
5.66336	27.65934
5.66861	31.44746
5.67386	36.42892
5.67910	44.67728
5.68435	55.87540
5.68960	66.23428
5.69485	70.12414
5.70010	65.48100
5.70535	56.38838
5.71059	44.64252
5.71584	35.12222
5.72109	29.48378
5.72634	27.21010
5.73158	25.26566
5.73683	24.56226
5.74208	23.65392
5.74733	23.20568
5.75257	22.92242
5.75782	22.53874
5.76307	23.60166
5.76831	24.71616
5.77356	24.53890
5.77881	23.95022
5.78405	23.50214
5.78930	23.29070
5.79455	22.83700
5.79979	22.47998
5.80504	23.44744
5.81028	24.10234
5.81553	23.70062
5.82078	23.74446
5.82602	23.67156
5.83127	23.61594
5.83651	23.80136
5.84176	24.06996
5.84700	24.39654
5.85225	24.68042
5.85749	23.71468
5.86274	23.27990
5.86798	23.03778
5.87323	23.42606
5.87847	24.02316
5.88372	24.93194
5.88896	25.52842
5.89421	24.14778
5.89945	22.85142
5.90469	22.19624
5.90994	21.80368
5.91518	22.07292
5.92043	22.39504
5.92567	23.45020
5.93091	23.65388
5.93616	23.73660
5.94140	23.42652
5.94664	23.56558
5.95189	23.87700
5.95713	23.31204
5.96237	24.28238
5.96762	25.20868
5.97286	25.39076
5.97810	24.83566
5.98335	23.59468
5.98859	23.31232
5.99383	22.92912
5.99907	23.29494
6.00432	23.57370
6.00956	23.90036
6.01480	23.90806
6.02004	23.75968
6.02528	23.72676
6.03053	24.21670
6.03577	24.52980
6.04101	24.06470
6.04625	23.21382
6.05149	23.23678
6.05673	24.13656
6.06197	25.04284
6.06722	24.80226
6.07246	24.83698
6.07770	24.73290
6.08294	25.00360
6.08818	24.70554
6.09342	24.68274
6.09866	24.74530
6.10390	24.44146
6.10914	23.43588
6.11438	22.82142
6.11962	22.57452
6.12486	21.66130
6.13010	21.68424
6.13534	22.61056
6.14058	23.52552
6.14582	24.18362
6.15106	24.31514
6.15630	24.35770
6.16154	23.98926
6.16678	23.70526
6.17202	24.31584
6.17725	24.52372
6.18249	24.85576
6.18773	25.21160
