
test_ang_tranf.exe: 2016- 5-18 15:57:27
#2theta theta omega gamma alpha beta
  3.4840   1.7420  91.0000   0.0000  84.2580   0.0000        0
  3.4840   1.7420  91.0000   5.0000  84.2733   5.0228        1
  3.4840   1.7420  91.0000  10.0000  84.3190  10.0452        2
  3.4840   1.7420  91.0000  15.0000  84.3948  15.0666        3
  3.4840   1.7420  91.0000  20.0000  84.5001  20.0868        4
  3.4840   1.7420  91.0000  25.0000  84.6341  25.1052        5
  3.4840   1.7420  91.0000  30.0000  84.7957  30.1217        6
  3.4840   1.7420  91.0000  35.0000  84.9837  35.1358        7
  3.4840   1.7420  91.0000  40.0000  85.1966  40.1473        8
  3.4840   1.7420  91.0000  45.0000  85.4329  45.1562        9
  3.4840   1.7420  91.0000  50.0000  85.6906  50.1622       10
  3.4840   1.7420  91.0000  55.0000  85.9678  55.1655       11
  3.4840   1.7420  91.0000  60.0000  86.2624  60.1660       12
  3.4840   1.7420  91.0000  65.0000  86.5721  65.1638       13
  3.4840   1.7420  91.0000  70.0000  86.8947  70.1592       14
  3.4840   1.7420  91.0000  75.0000  87.2275  75.1524       15
  3.4840   1.7420  91.0000  80.0000  87.5681  80.1436       16
  3.4840   1.7420  91.0000  85.0000  87.9139  85.1332       17
  3.4840   1.7420  91.0000  90.0000  88.2622  90.1216       18
  3.4840   1.7420  91.0000  95.0000  88.6106  95.1090       19
  3.4840   1.7420  91.0000 100.0000  88.9562 100.0958       20
  3.4840   1.7420  91.0000 105.0000  89.2965 105.0825       21
  3.4840   1.7420  91.0000 110.0000  89.6288 110.0693       22
  3.4840   1.7420  91.0000 115.0000  89.9508 115.0567       23
  3.4840   1.7420  91.0000 120.0000  89.7400 239.9552       24
  3.4840   1.7420  91.0000 125.0000  89.4461 234.9660       25
  3.4840   1.7420  91.0000 130.0000  89.1696 229.9756       26
  3.4840   1.7420  91.0000 135.0000  88.9126 224.9838       27
  3.4840   1.7420  91.0000 140.0000  88.6771 219.9906       28
  3.4840   1.7420  91.0000 145.0000  88.4649 214.9959       29
  3.4840   1.7420  91.0000 150.0000  88.2775 209.9997       30
  3.4840   1.7420  91.0000 155.0000  88.1165 205.0021       31
  3.4840   1.7420  91.0000 160.0000  87.9831 200.0033       32
  3.4840   1.7420  91.0000 165.0000  87.8782 195.0034       33
  3.4840   1.7420  91.0000 170.0000  87.8027 190.0028       34
  3.4840   1.7420  91.0000 175.0000  87.7572 185.0015       35
  3.4840   1.7420  91.0000 180.0000  87.7420 180.0000       36
  3.4840   1.7420  91.0000 185.0000  87.7572 174.9985       37
  3.4840   1.7420  91.0000 190.0000  87.8027 169.9972       38
  3.4840   1.7420  91.0000 195.0000  87.8782 164.9966       39
  3.4840   1.7420  91.0000 200.0000  87.9831 159.9967       40
  3.4840   1.7420  91.0000 205.0000  88.1165 154.9979       41
  3.4840   1.7420  91.0000 210.0000  88.2775 150.0003       42
  3.4840   1.7420  91.0000 215.0000  88.4649 145.0041       43
  3.4840   1.7420  91.0000 220.0000  88.6771 140.0094       44
  3.4840   1.7420  91.0000 225.0000  88.9126 135.0162       45
  3.4840   1.7420  91.0000 230.0000  89.1696 130.0244       46
  3.4840   1.7420  91.0000 235.0000  89.4461 125.0340       47
  3.4840   1.7420  91.0000 240.0000  89.7400 120.0448       48
  3.4840   1.7420  91.0000 245.0000  89.9508 244.9433       49
  3.4840   1.7420  91.0000 250.0000  89.6288 249.9307       50
  3.4840   1.7420  91.0000 255.0000  89.2965 254.9175       51
  3.4840   1.7420  91.0000 260.0000  88.9562 259.9042       52
  3.4840   1.7420  91.0000 265.0000  88.6106 264.8910       53
  3.4840   1.7420  91.0000 270.0000  88.2622 269.8784       54
  3.4840   1.7420  91.0000 275.0000  87.9139 274.8668       55
  3.4840   1.7420  91.0000 280.0000  87.5681 279.8564       56
  3.4840   1.7420  91.0000 285.0000  87.2275 284.8476       57
  3.4840   1.7420  91.0000 290.0000  86.8947 289.8408       58
  3.4840   1.7420  91.0000 295.0000  86.5721 294.8362       59
  3.4840   1.7420  91.0000 300.0000  86.2624 299.8340       60
  3.4840   1.7420  91.0000 305.0000  85.9678 304.8345       61
  3.4840   1.7420  91.0000 310.0000  85.6906 309.8378       62
  3.4840   1.7420  91.0000 315.0000  85.4329 314.8438       63
  3.4840   1.7420  91.0000 320.0000  85.1966 319.8527       64
  3.4840   1.7420  91.0000 325.0000  84.9837 324.8642       65
  3.4840   1.7420  91.0000 330.0000  84.7957 329.8783       66
  3.4840   1.7420  91.0000 335.0000  84.6341 334.8948       67
  3.4840   1.7420  91.0000 340.0000  84.5001 339.9132       68
  3.4840   1.7420  91.0000 345.0000  84.3948 344.9334       69
  3.4840   1.7420  91.0000 350.0000  84.3190 349.9548       70
  3.4840   1.7420  91.0000 355.0000  84.2733 354.9772       71
  3.4840   1.7420  96.0000   0.0000  79.2580   0.0000       72
  3.4840   1.7420  96.0000   5.0000  79.2927   5.0865       73
  3.4840   1.7420  96.0000  10.0000  79.3965  10.1708       74
  3.4840   1.7420  96.0000  15.0000  79.5686  15.2509       75
  3.4840   1.7420  96.0000  20.0000  79.8074  20.3249       76
  3.4840   1.7420  96.0000  25.0000  80.1112  25.3910       77
  3.4840   1.7420  96.0000  30.0000  80.4773  30.4477       78
  3.4840   1.7420  96.0000  35.0000  80.9028  35.4938       79
  3.4840   1.7420  96.0000  40.0000  81.3844  40.5283       80
  3.4840   1.7420  96.0000  45.0000  81.9180  45.5507       81
  3.4840   1.7420  96.0000  50.0000  82.4996  50.5607       82
  3.4840   1.7420  96.0000  55.0000  83.1246  55.5585       83
  3.4840   1.7420  96.0000  60.0000  83.7881  60.5445       84
  3.4840   1.7420  96.0000  65.0000  84.4850  65.5194       85
  3.4840   1.7420  96.0000  70.0000  85.2100  70.4843       86
  3.4840   1.7420  96.0000  75.0000  85.9576  75.4406       87
  3.4840   1.7420  96.0000  80.0000  86.7222  80.3895       88
  3.4840   1.7420  96.0000  85.0000  87.4981  85.3330       89
  3.4840   1.7420  96.0000  90.0000  88.2795  90.2726       90
  3.4840   1.7420  96.0000  95.0000  89.0605  95.2102       91
  3.4840   1.7420  96.0000 100.0000  89.8354 100.1478       92
  3.4840   1.7420  96.0000 105.0000  89.4015 254.9131       93
  3.4840   1.7420  96.0000 110.0000  88.6560 249.9706       94
  3.4840   1.7420  96.0000 115.0000  87.9336 245.0231       95
  3.4840   1.7420  96.0000 120.0000  87.2398 240.0694       96
  3.4840   1.7420  96.0000 125.0000  86.5796 235.1083       97
  3.4840   1.7420  96.0000 130.0000  85.9583 230.1388       98
  3.4840   1.7420  96.0000 135.0000  85.3804 225.1604       99
  3.4840   1.7420  96.0000 140.0000  84.8504 220.1727      100
  3.4840   1.7420  96.0000 145.0000  84.3725 215.1758      101
  3.4840   1.7420  96.0000 150.0000  83.9504 210.1700      102
  3.4840   1.7420  96.0000 155.0000  83.5874 205.1559      103
  3.4840   1.7420  96.0000 160.0000  83.2863 200.1343      104
  3.4840   1.7420  96.0000 165.0000  83.0496 195.1065      105
  3.4840   1.7420  96.0000 170.0000  82.8792 190.0738      106
  3.4840   1.7420  96.0000 175.0000  82.7764 185.0378      107
  3.4840   1.7420  96.0000 180.0000  82.7420 180.0000      108
  3.4840   1.7420  96.0000 185.0000  82.7764 174.9622      109
  3.4840   1.7420  96.0000 190.0000  82.8792 169.9262      110
  3.4840   1.7420  96.0000 195.0000  83.0496 164.8935      111
  3.4840   1.7420  96.0000 200.0000  83.2863 159.8657      112
  3.4840   1.7420  96.0000 205.0000  83.5874 154.8441      113
  3.4840   1.7420  96.0000 210.0000  83.9504 149.8300      114
  3.4840   1.7420  96.0000 215.0000  84.3725 144.8242      115
  3.4840   1.7420  96.0000 220.0000  84.8504 139.8273      116
  3.4840   1.7420  96.0000 225.0000  85.3804 134.8396      117
  3.4840   1.7420  96.0000 230.0000  85.9583 129.8612      118
  3.4840   1.7420  96.0000 235.0000  86.5796 124.8917      119
  3.4840   1.7420  96.0000 240.0000  87.2398 119.9306      120
  3.4840   1.7420  96.0000 245.0000  87.9336 114.9769      121
  3.4840   1.7420  96.0000 250.0000  88.6560 110.0294      122
  3.4840   1.7420  96.0000 255.0000  89.4015 105.0869      123
  3.4840   1.7420  96.0000 260.0000  89.8354 259.8522      124
  3.4840   1.7420  96.0000 265.0000  89.0605 264.7898      125
  3.4840   1.7420  96.0000 270.0000  88.2795 269.7274      126
  3.4840   1.7420  96.0000 275.0000  87.4981 274.6670      127
  3.4840   1.7420  96.0000 280.0000  86.7222 279.6105      128
  3.4840   1.7420  96.0000 285.0000  85.9576 284.5594      129
  3.4840   1.7420  96.0000 290.0000  85.2100 289.5157      130
  3.4840   1.7420  96.0000 295.0000  84.4850 294.4806      131
  3.4840   1.7420  96.0000 300.0000  83.7881 299.4555      132
  3.4840   1.7420  96.0000 305.0000  83.1246 304.4415      133
  3.4840   1.7420  96.0000 310.0000  82.4996 309.4393      134
  3.4840   1.7420  96.0000 315.0000  81.9180 314.4493      135
  3.4840   1.7420  96.0000 320.0000  81.3844 319.4717      136
  3.4840   1.7420  96.0000 325.0000  80.9028 324.5062      137
  3.4840   1.7420  96.0000 330.0000  80.4773 329.5523      138
  3.4840   1.7420  96.0000 335.0000  80.1112 334.6090      139
  3.4840   1.7420  96.0000 340.0000  79.8074 339.6751      140
  3.4840   1.7420  96.0000 345.0000  79.5686 344.7491      141
  3.4840   1.7420  96.0000 350.0000  79.3965 349.8292      142
  3.4840   1.7420  96.0000 355.0000  79.2927 354.9135      143
  3.4840   1.7420 101.0000   0.0000  74.2580   0.0000      144
  3.4840   1.7420 101.0000   5.0000  74.3128   5.1916      145
  3.4840   1.7420 101.0000  10.0000  74.4766  10.3779      146
  3.4840   1.7420 101.0000  15.0000  74.7479  15.5539      147
  3.4840   1.7420 101.0000  20.0000  75.1243  20.7148      148
  3.4840   1.7420 101.0000  25.0000  75.6023  25.8566      149
  3.4840   1.7420 101.0000  30.0000  76.1778  30.9756      150
  3.4840   1.7420 101.0000  35.0000  76.8456  36.0691      151
  3.4840   1.7420 101.0000  40.0000  77.6001  41.1350      152
  3.4840   1.7420 101.0000  45.0000  78.4349  46.1724      153
  3.4840   1.7420 101.0000  50.0000  79.3430  51.1809      154
  3.4840   1.7420 101.0000  55.0000  80.3173  56.1611      155
  3.4840   1.7420 101.0000  60.0000  81.3498  61.1143      156
  3.4840   1.7420 101.0000  65.0000  82.4328  66.0426      157
  3.4840   1.7420 101.0000  70.0000  83.5579  70.9487      158
  3.4840   1.7420 101.0000  75.0000  84.7167  75.8359      159
  3.4840   1.7420 101.0000  80.0000  85.9007  80.7077      160
  3.4840   1.7420 101.0000  85.0000  87.1013  85.5682      161
  3.4840   1.7420 101.0000  90.0000  88.3098  90.4216      162
  3.4840   1.7420 101.0000  95.0000  89.5175  95.2721      163
  3.4840   1.7420 101.0000 100.0000  89.2841 259.8759      164
  3.4840   1.7420 101.0000 105.0000  88.1038 255.0183      165
  3.4840   1.7420 101.0000 110.0000  86.9500 250.1510      166
  3.4840   1.7420 101.0000 115.0000  85.8311 245.2704      167
  3.4840   1.7420 101.0000 120.0000  84.7553 240.3733      168
  3.4840   1.7420 101.0000 125.0000  83.7308 235.4569      169
  3.4840   1.7420 101.0000 130.0000  82.7652 230.5190      170
  3.4840   1.7420 101.0000 135.0000  81.8659 225.5582      171
  3.4840   1.7420 101.0000 140.0000  81.0402 220.5738      172
  3.4840   1.7420 101.0000 145.0000  80.2945 215.5657      173
  3.4840   1.7420 101.0000 150.0000  79.6350 210.5347      174
  3.4840   1.7420 101.0000 155.0000  79.0672 205.4823      175
  3.4840   1.7420 101.0000 160.0000  78.5957 200.4107      176
  3.4840   1.7420 101.0000 165.0000  78.2247 195.3230      177
  3.4840   1.7420 101.0000 170.0000  77.9573 190.2226      178
  3.4840   1.7420 101.0000 175.0000  77.7959 185.1135      179
  3.4840   1.7420 101.0000 180.0000  77.7420 180.0000      180
  3.4840   1.7420 101.0000 185.0000  77.7959 174.8865      181
  3.4840   1.7420 101.0000 190.0000  77.9573 169.7774      182
  3.4840   1.7420 101.0000 195.0000  78.2247 164.6770      183
  3.4840   1.7420 101.0000 200.0000  78.5957 159.5893      184
  3.4840   1.7420 101.0000 205.0000  79.0672 154.5177      185
  3.4840   1.7420 101.0000 210.0000  79.6350 149.4653      186
  3.4840   1.7420 101.0000 215.0000  80.2945 144.4343      187
  3.4840   1.7420 101.0000 220.0000  81.0402 139.4262      188
  3.4840   1.7420 101.0000 225.0000  81.8659 134.4418      189
  3.4840   1.7420 101.0000 230.0000  82.7652 129.4810      190
  3.4840   1.7420 101.0000 235.0000  83.7308 124.5431      191
  3.4840   1.7420 101.0000 240.0000  84.7553 119.6267      192
  3.4840   1.7420 101.0000 245.0000  85.8311 114.7296      193
  3.4840   1.7420 101.0000 250.0000  86.9500 109.8490      194
  3.4840   1.7420 101.0000 255.0000  88.1038 104.9817      195
  3.4840   1.7420 101.0000 260.0000  89.2841 100.1241      196
  3.4840   1.7420 101.0000 265.0000  89.5175 264.7279      197
  3.4840   1.7420 101.0000 270.0000  88.3098 269.5784      198
  3.4840   1.7420 101.0000 275.0000  87.1013 274.4318      199
  3.4840   1.7420 101.0000 280.0000  85.9007 279.2923      200
  3.4840   1.7420 101.0000 285.0000  84.7167 284.1641      201
  3.4840   1.7420 101.0000 290.0000  83.5579 289.0513      202
  3.4840   1.7420 101.0000 295.0000  82.4328 293.9574      203
  3.4840   1.7420 101.0000 300.0000  81.3498 298.8857      204
  3.4840   1.7420 101.0000 305.0000  80.3173 303.8389      205
  3.4840   1.7420 101.0000 310.0000  79.3430 308.8191      206
  3.4840   1.7420 101.0000 315.0000  78.4349 313.8276      207
  3.4840   1.7420 101.0000 320.0000  77.6001 318.8650      208
  3.4840   1.7420 101.0000 325.0000  76.8456 323.9309      209
  3.4840   1.7420 101.0000 330.0000  76.1778 329.0244      210
  3.4840   1.7420 101.0000 335.0000  75.6023 334.1434      211
  3.4840   1.7420 101.0000 340.0000  75.1243 339.2852      212
  3.4840   1.7420 101.0000 345.0000  74.7479 344.4461      213
  3.4840   1.7420 101.0000 350.0000  74.4766 349.6221      214
  3.4840   1.7420 101.0000 355.0000  74.3128 354.8084      215
  3.4840   1.7420 106.0000   0.0000  69.2580   0.0000      216
  3.4840   1.7420 106.0000   5.0000  69.3338   5.3424      217
  3.4840   1.7420 106.0000  10.0000  69.5606  10.6745      218
  3.4840   1.7420 106.0000  15.0000  69.9358  15.9867      219
  3.4840   1.7420 106.0000  20.0000  70.4557  21.2700      220
  3.4840   1.7420 106.0000  25.0000  71.1149  26.5165      221
  3.4840   1.7420 106.0000  30.0000  71.9069  31.7199      222
  3.4840   1.7420 106.0000  35.0000  72.8239  36.8752      223
  3.4840   1.7420 106.0000  40.0000  73.8575  41.9793      224
  3.4840   1.7420 106.0000  45.0000  74.9983  47.0306      225
  3.4840   1.7420 106.0000  50.0000  76.2364  52.0294      226
  3.4840   1.7420 106.0000  55.0000  77.5613  56.9773      227
  3.4840   1.7420 106.0000  60.0000  78.9625  61.8772      228
  3.4840   1.7420 106.0000  65.0000  80.4290  66.7334      229
  3.4840   1.7420 106.0000  70.0000  81.9497  71.5511      230
  3.4840   1.7420 106.0000  75.0000  83.5136  76.3364      231
  3.4840   1.7420 106.0000  80.0000  85.1095  81.0961      232
  3.4840   1.7420 106.0000  85.0000  86.7264  85.8372      233
  3.4840   1.7420 106.0000  90.0000  88.3529  90.5673      234
  3.4840   1.7420 106.0000  95.0000  89.9782  95.2940      235
  3.4840   1.7420 106.0000 100.0000  88.4090 259.9751      236
  3.4840   1.7420 106.0000 105.0000  86.8195 255.2327      237
  3.4840   1.7420 106.0000 110.0000  85.2645 250.4715      238
  3.4840   1.7420 106.0000 115.0000  83.7547 245.6852      239
  3.4840   1.7420 106.0000 120.0000  82.3012 240.8678      240
  3.4840   1.7420 106.0000 125.0000  80.9144 236.0142      241
  3.4840   1.7420 106.0000 130.0000  79.6051 231.1204      242
  3.4840   1.7420 106.0000 135.0000  78.3834 226.1834      243
  3.4840   1.7420 106.0000 140.0000  77.2592 221.2015      244
  3.4840   1.7420 106.0000 145.0000  76.2419 216.1745      245
  3.4840   1.7420 106.0000 150.0000  75.3403 211.1035      246
  3.4840   1.7420 106.0000 155.0000  74.5626 205.9912      247
  3.4840   1.7420 106.0000 160.0000  73.9158 200.8418      248
  3.4840   1.7420 106.0000 165.0000  73.4061 195.6608      249
  3.4840   1.7420 106.0000 170.0000  73.0384 190.4549      250
  3.4840   1.7420 106.0000 175.0000  72.8163 185.2318      251
  3.4840   1.7420 106.0000 180.0000  72.7420 180.0000      252
  3.4840   1.7420 106.0000 185.0000  72.8163 174.7682      253
  3.4840   1.7420 106.0000 190.0000  73.0384 169.5451      254
  3.4840   1.7420 106.0000 195.0000  73.4061 164.3392      255
  3.4840   1.7420 106.0000 200.0000  73.9158 159.1582      256
  3.4840   1.7420 106.0000 205.0000  74.5626 154.0088      257
  3.4840   1.7420 106.0000 210.0000  75.3403 148.8965      258
  3.4840   1.7420 106.0000 215.0000  76.2419 143.8255      259
  3.4840   1.7420 106.0000 220.0000  77.2592 138.7985      260
  3.4840   1.7420 106.0000 225.0000  78.3834 133.8166      261
  3.4840   1.7420 106.0000 230.0000  79.6051 128.8796      262
  3.4840   1.7420 106.0000 235.0000  80.9144 123.9858      263
  3.4840   1.7420 106.0000 240.0000  82.3012 119.1322      264
  3.4840   1.7420 106.0000 245.0000  83.7547 114.3148      265
  3.4840   1.7420 106.0000 250.0000  85.2645 109.5285      266
  3.4840   1.7420 106.0000 255.0000  86.8195 104.7673      267
  3.4840   1.7420 106.0000 260.0000  88.4090 100.0249      268
  3.4840   1.7420 106.0000 265.0000  89.9782 264.7060      269
  3.4840   1.7420 106.0000 270.0000  88.3529 269.4327      270
  3.4840   1.7420 106.0000 275.0000  86.7264 274.1628      271
  3.4840   1.7420 106.0000 280.0000  85.1095 278.9039      272
  3.4840   1.7420 106.0000 285.0000  83.5136 283.6636      273
  3.4840   1.7420 106.0000 290.0000  81.9497 288.4489      274
  3.4840   1.7420 106.0000 295.0000  80.4290 293.2666      275
  3.4840   1.7420 106.0000 300.0000  78.9625 298.1228      276
  3.4840   1.7420 106.0000 305.0000  77.5613 303.0227      277
  3.4840   1.7420 106.0000 310.0000  76.2364 307.9706      278
  3.4840   1.7420 106.0000 315.0000  74.9983 312.9694      279
  3.4840   1.7420 106.0000 320.0000  73.8575 318.0207      280
  3.4840   1.7420 106.0000 325.0000  72.8239 323.1248      281
  3.4840   1.7420 106.0000 330.0000  71.9069 328.2801      282
  3.4840   1.7420 106.0000 335.0000  71.1149 333.4835      283
  3.4840   1.7420 106.0000 340.0000  70.4557 338.7300      284
  3.4840   1.7420 106.0000 345.0000  69.9358 344.0133      285
  3.4840   1.7420 106.0000 350.0000  69.5606 349.3255      286
  3.4840   1.7420 106.0000 355.0000  69.3338 354.6576      287
  3.4840   1.7420 111.0000   0.0000  64.2580   0.0000      288
  3.4840   1.7420 111.0000   5.0000  64.3564   5.5453      289
  3.4840   1.7420 111.0000  10.0000  64.6502  11.0731      290
  3.4840   1.7420 111.0000  15.0000  65.1359  16.5665      291
  3.4840   1.7420 111.0000  20.0000  65.8076  22.0105      292
  3.4840   1.7420 111.0000  25.0000  66.6574  27.3922      293
  3.4840   1.7420 111.0000  30.0000  67.6755  32.7016      294
  3.4840   1.7420 111.0000  35.0000  68.8509  37.9313      295
  3.4840   1.7420 111.0000  40.0000  70.1715  43.0772      296
  3.4840   1.7420 111.0000  45.0000  71.6244  48.1380      297
  3.4840   1.7420 111.0000  50.0000  73.1962  53.1152      298
  3.4840   1.7420 111.0000  55.0000  74.8731  58.0123      299
  3.4840   1.7420 111.0000  60.0000  76.6414  62.8353      300
  3.4840   1.7420 111.0000  65.0000  78.4873  67.5915      301
  3.4840   1.7420 111.0000  70.0000  80.3971  72.2897      302
  3.4840   1.7420 111.0000  75.0000  82.3574  76.9397      303
  3.4840   1.7420 111.0000  80.0000  84.3548  81.5521      304
  3.4840   1.7420 111.0000  85.0000  86.3763  86.1380      305
  3.4840   1.7420 111.0000  90.0000  88.4086  90.7087      306
  3.4840   1.7420 111.0000  95.0000  89.5610 264.7241      307
  3.4840   1.7420 111.0000 100.0000  87.5455 260.1492      308
  3.4840   1.7420 111.0000 105.0000  85.5579 255.5552      309
  3.4840   1.7420 111.0000 110.0000  83.6111 250.9314      310
  3.4840   1.7420 111.0000 115.0000  81.7181 246.2677      311
  3.4840   1.7420 111.0000 120.0000  79.8920 241.5547      312
  3.4840   1.7420 111.0000 125.0000  78.1462 236.7843      313
  3.4840   1.7420 111.0000 130.0000  76.4936 231.9496      314
  3.4840   1.7420 111.0000 135.0000  74.9476 227.0453      315
