
test_ang_tranf.exe: 2016- 5-18 15:28:30
#2theta theta omega gamma alpha beta
  3.4840   1.7420  91.0000   0.0000   2.7420 180.0000        0
  3.4840   1.7420  91.0000   5.0000   5.7020 118.7394        1
  3.4840   1.7420  91.0000  10.0000  10.3680 105.3279        2
  3.4840   1.7420  91.0000  15.0000  15.2468 100.3494        3
  3.4840   1.7420  91.0000  20.0000  20.1848  97.7930        4
  3.4840   1.7420  91.0000  25.0000  25.1470  96.2421        5
  3.4840   1.7420  91.0000  30.0000  30.1215  95.2022        6
  3.4840   1.7420  91.0000  35.0000  35.1031  94.4566        7
  3.4840   1.7420  91.0000  40.0000  40.0892  93.8962        8
  3.4840   1.7420  91.0000  45.0000  45.0781  93.4597        9
  3.4840   1.7420  91.0000  50.0000  50.0692  93.1104       10
  3.4840   1.7420  91.0000  55.0000  55.0617  92.8248       11
  3.4840   1.7420  91.0000  60.0000  60.0554  92.5874       12
  3.4840   1.7420  91.0000  65.0000  65.0499  92.3873       13
  3.4840   1.7420  91.0000  70.0000  70.0452  92.2169       14
  3.4840   1.7420  91.0000  75.0000  75.0409  92.0708       15
  3.4840   1.7420  91.0000  80.0000  80.0371  91.9447       16
  3.4840   1.7420  91.0000  85.0000  85.0336  91.8358       17
  3.4840   1.7420  91.0000  90.0000  89.9696 268.2583       18
  3.4840   1.7420  91.0000  95.0000  84.9726 268.3390       19
  3.4840   1.7420  91.0000 100.0000  79.9753 268.4076       20
  3.4840   1.7420  91.0000 105.0000  74.9780 268.4646       21
  3.4840   1.7420  91.0000 110.0000  69.9805 268.5102       22
  3.4840   1.7420  91.0000 115.0000  64.9829 268.5442       23
  3.4840   1.7420  91.0000 120.0000  59.9852 268.5658       24
  3.4840   1.7420  91.0000 125.0000  54.9875 268.5735       25
  3.4840   1.7420  91.0000 130.0000  49.9899 268.5650       26
  3.4840   1.7420  91.0000 135.0000  44.9922 268.5363       27
  3.4840   1.7420  91.0000 140.0000  39.9947 268.4816       28
  3.4840   1.7420  91.0000 145.0000  34.9973 268.3909       29
  3.4840   1.7420  91.0000 150.0000  30.0002 268.2480       30
  3.4840   1.7420  91.0000 155.0000  25.0036 268.0226       31
  3.4840   1.7420  91.0000 160.0000  20.0078 267.6546       32
  3.4840   1.7420  91.0000 165.0000  15.0139 267.0030       33
  3.4840   1.7420  91.0000 170.0000  10.0246 265.6461       34
  3.4840   1.7420  91.0000 175.0000   5.0533 261.5020       35
  3.4840   1.7420  91.0000 180.0000   0.7420 180.0000       36
  3.4840   1.7420  91.0000 185.0000   5.0533  98.4980       37
  3.4840   1.7420  91.0000 190.0000  10.0246  94.3539       38
  3.4840   1.7420  91.0000 195.0000  15.0139  92.9970       39
  3.4840   1.7420  91.0000 200.0000  20.0078  92.3454       40
  3.4840   1.7420  91.0000 205.0000  25.0036  91.9774       41
  3.4840   1.7420  91.0000 210.0000  30.0002  91.7520       42
  3.4840   1.7420  91.0000 215.0000  34.9973  91.6091       43
  3.4840   1.7420  91.0000 220.0000  39.9947  91.5184       44
  3.4840   1.7420  91.0000 225.0000  44.9922  91.4637       45
  3.4840   1.7420  91.0000 230.0000  49.9899  91.4350       46
  3.4840   1.7420  91.0000 235.0000  54.9875  91.4265       47
  3.4840   1.7420  91.0000 240.0000  59.9852  91.4342       48
  3.4840   1.7420  91.0000 245.0000  64.9829  91.4558       49
  3.4840   1.7420  91.0000 250.0000  69.9805  91.4898       50
  3.4840   1.7420  91.0000 255.0000  74.9780  91.5354       51
  3.4840   1.7420  91.0000 260.0000  79.9753  91.5924       52
  3.4840   1.7420  91.0000 265.0000  84.9726  91.6610       53
  3.4840   1.7420  91.0000 270.0000  89.9696  91.7417       54
  3.4840   1.7420  91.0000 275.0000  85.0336 268.1642       55
  3.4840   1.7420  91.0000 280.0000  80.0371 268.0553       56
  3.4840   1.7420  91.0000 285.0000  75.0409 267.9292       57
  3.4840   1.7420  91.0000 290.0000  70.0452 267.7831       58
  3.4840   1.7420  91.0000 295.0000  65.0499 267.6127       59
  3.4840   1.7420  91.0000 300.0000  60.0554 267.4126       60
  3.4840   1.7420  91.0000 305.0000  55.0617 267.1752       61
  3.4840   1.7420  91.0000 310.0000  50.0692 266.8896       62
  3.4840   1.7420  91.0000 315.0000  45.0781 266.5403       63
  3.4840   1.7420  91.0000 320.0000  40.0892 266.1038       64
  3.4840   1.7420  91.0000 325.0000  35.1031 265.5434       65
  3.4840   1.7420  91.0000 330.0000  30.1215 264.7978       66
  3.4840   1.7420  91.0000 335.0000  25.1470 263.7579       67
  3.4840   1.7420  91.0000 340.0000  20.1848 262.2070       68
  3.4840   1.7420  91.0000 345.0000  15.2468 259.6506       69
  3.4840   1.7420  91.0000 350.0000  10.3680 254.6721       70
  3.4840   1.7420  91.0000 355.0000   5.7020 241.2606       71
  3.4840   1.7420  96.0000   0.0000   7.7420 180.0000       72
  3.4840   1.7420  96.0000   5.0000   9.2123 147.0329       73
  3.4840   1.7420  96.0000  10.0000  12.6352 127.4879       74
  3.4840   1.7420  96.0000  15.0000  16.8607 116.8836       75
  3.4840   1.7420  96.0000  20.0000  21.4189 110.5874       76
  3.4840   1.7420  96.0000  25.0000  26.1363 106.4746       77
  3.4840   1.7420  96.0000  30.0000  30.9401 103.5792       78
  3.4840   1.7420  96.0000  35.0000  35.7954 101.4209       79
  3.4840   1.7420  96.0000  40.0000  40.6838  99.7386       80
  3.4840   1.7420  96.0000  45.0000  45.5946  98.3796       81
  3.4840   1.7420  96.0000  50.0000  50.5211  97.2487       82
  3.4840   1.7420  96.0000  55.0000  55.4592  96.2838       83
  3.4840   1.7420  96.0000  60.0000  60.4058  95.4424       84
  3.4840   1.7420  96.0000  65.0000  65.3590  94.6943       85
  3.4840   1.7420  96.0000  70.0000  70.3173  94.0174       86
  3.4840   1.7420  96.0000  75.0000  75.2795  93.3949       87
  3.4840   1.7420  96.0000  80.0000  80.2448  92.8135       88
  3.4840   1.7420  96.0000  85.0000  85.2125  92.2624       89
  3.4840   1.7420  96.0000  90.0000  89.8179 268.2675       90
  3.4840   1.7420  96.0000  95.0000  84.8470 268.7845       91
  3.4840   1.7420  96.0000 100.0000  79.8751 269.2963       92
  3.4840   1.7420  96.0000 105.0000  74.9027 269.8106       93
  3.4840   1.7420  96.0000 110.0000  69.9301 270.3356       94
  3.4840   1.7420  96.0000 115.0000  64.9578 270.8805       95
  3.4840   1.7420  96.0000 120.0000  59.9862 271.4564       96
  3.4840   1.7420  96.0000 125.0000  55.0160 272.0771       97
  3.4840   1.7420  96.0000 130.0000  50.0478 272.7610       98
  3.4840   1.7420  96.0000 135.0000  45.0827 273.5337       99
  3.4840   1.7420  96.0000 140.0000  40.1221 274.4325      100
  3.4840   1.7420  96.0000 145.0000  35.1681 275.5148      101
  3.4840   1.7420  96.0000 150.0000  30.2244 276.8742      102
  3.4840   1.7420  96.0000 155.0000  25.2971 278.6760      103
  3.4840   1.7420  96.0000 160.0000  20.3986 281.2413      104
  3.4840   1.7420  96.0000 165.0000  15.5562 285.2826      105
  3.4840   1.7420  96.0000 170.0000  10.8456 292.7156      106
  3.4840   1.7420  96.0000 175.0000   6.5578 310.2889      107
  3.4840   1.7420  96.0000 180.0000   4.2580   0.0000      108
  3.4840   1.7420  96.0000 185.0000   6.5578  49.7111      109
  3.4840   1.7420  96.0000 190.0000  10.8456  67.2844      110
  3.4840   1.7420  96.0000 195.0000  15.5562  74.7174      111
  3.4840   1.7420  96.0000 200.0000  20.3986  78.7587      112
  3.4840   1.7420  96.0000 205.0000  25.2971  81.3240      113
  3.4840   1.7420  96.0000 210.0000  30.2244  83.1258      114
  3.4840   1.7420  96.0000 215.0000  35.1681  84.4852      115
  3.4840   1.7420  96.0000 220.0000  40.1221  85.5675      116
  3.4840   1.7420  96.0000 225.0000  45.0827  86.4663      117
  3.4840   1.7420  96.0000 230.0000  50.0478  87.2390      118
  3.4840   1.7420  96.0000 235.0000  55.0160  87.9229      119
  3.4840   1.7420  96.0000 240.0000  59.9862  88.5436      120
  3.4840   1.7420  96.0000 245.0000  64.9578  89.1195      121
  3.4840   1.7420  96.0000 250.0000  69.9301  89.6644      122
  3.4840   1.7420  96.0000 255.0000  74.9027  90.1894      123
  3.4840   1.7420  96.0000 260.0000  79.8751  90.7037      124
  3.4840   1.7420  96.0000 265.0000  84.8470  91.2155      125
  3.4840   1.7420  96.0000 270.0000  89.8179  91.7325      126
  3.4840   1.7420  96.0000 275.0000  85.2125 267.7376      127
  3.4840   1.7420  96.0000 280.0000  80.2448 267.1865      128
  3.4840   1.7420  96.0000 285.0000  75.2795 266.6051      129
  3.4840   1.7420  96.0000 290.0000  70.3173 265.9826      130
  3.4840   1.7420  96.0000 295.0000  65.3590 265.3057      131
  3.4840   1.7420  96.0000 300.0000  60.4058 264.5576      132
  3.4840   1.7420  96.0000 305.0000  55.4592 263.7162      133
  3.4840   1.7420  96.0000 310.0000  50.5211 262.7513      134
  3.4840   1.7420  96.0000 315.0000  45.5946 261.6204      135
  3.4840   1.7420  96.0000 320.0000  40.6838 260.2614      136
  3.4840   1.7420  96.0000 325.0000  35.7954 258.5791      137
  3.4840   1.7420  96.0000 330.0000  30.9401 256.4208      138
  3.4840   1.7420  96.0000 335.0000  26.1363 253.5254      139
  3.4840   1.7420  96.0000 340.0000  21.4189 249.4126      140
  3.4840   1.7420  96.0000 345.0000  16.8607 243.1164      141
  3.4840   1.7420  96.0000 350.0000  12.6352 232.5121      142
  3.4840   1.7420  96.0000 355.0000   9.2123 212.9671      143
  3.4840   1.7420 101.0000   0.0000  12.7420 180.0000      144
  3.4840   1.7420 101.0000   5.0000  13.6781 158.3828      145
  3.4840   1.7420 101.0000  10.0000  16.1644 141.4307      146
  3.4840   1.7420 101.0000  15.0000  19.6200 129.6063      147
  3.4840   1.7420 101.0000  20.0000  23.6231 121.4471      148
  3.4840   1.7420 101.0000  25.0000  27.9393 115.6332      149
  3.4840   1.7420 101.0000  30.0000  32.4435 111.3157      150
  3.4840   1.7420 101.0000  35.0000  37.0671 107.9810      151
  3.4840   1.7420 101.0000  40.0000  41.7702 105.3146      152
  3.4840   1.7420 101.0000  45.0000  46.5285 103.1175      153
  3.4840   1.7420 101.0000  50.0000  51.3262 101.2592      154
  3.4840   1.7420 101.0000  55.0000  56.1530  99.6509      155
  3.4840   1.7420 101.0000  60.0000  61.0015  98.2300      156
  3.4840   1.7420 101.0000  65.0000  65.8667  96.9510      157
  3.4840   1.7420 101.0000  70.0000  70.7445  95.7797      158
  3.4840   1.7420 101.0000  75.0000  75.6322  94.6897      159
  3.4840   1.7420 101.0000  80.0000  80.5272  93.6596      160
  3.4840   1.7420 101.0000  85.0000  85.4278  92.6716      161
  3.4840   1.7420 101.0000  90.0000  89.6677 268.2900      162
  3.4840   1.7420 101.0000  95.0000  84.7607 269.2395      163
  3.4840   1.7420 101.0000 100.0000  79.8527 270.1908      164
  3.4840   1.7420 101.0000 105.0000  74.9450 271.1583      165
  3.4840   1.7420 101.0000 110.0000  70.0389 272.1578      166
  3.4840   1.7420 101.0000 115.0000  65.1362 273.2072      167
  3.4840   1.7420 101.0000 120.0000  60.2387 274.3285      168
  3.4840   1.7420 101.0000 125.0000  55.3488 275.5495      169
  3.4840   1.7420 101.0000 130.0000  50.4697 276.9069      170
  3.4840   1.7420 101.0000 135.0000  45.6055 278.4517      171
  3.4840   1.7420 101.0000 140.0000  40.7625 280.2568      172
  3.4840   1.7420 101.0000 145.0000  35.9499 282.4322      173
  3.4840   1.7420 101.0000 150.0000  31.1826 285.1513      174
  3.4840   1.7420 101.0000 155.0000  26.4857 288.7035      175
  3.4840   1.7420 101.0000 160.0000  21.9053 293.6032      176
  3.4840   1.7420 101.0000 165.0000  17.5334 300.8271      177
  3.4840   1.7420 101.0000 170.0000  13.5740 312.3087      178
  3.4840   1.7420 101.0000 175.0000  10.5046 331.4562      179
  3.4840   1.7420 101.0000 180.0000   9.2580   0.0000      180
  3.4840   1.7420 101.0000 185.0000  10.5046  28.5438      181
  3.4840   1.7420 101.0000 190.0000  13.5740  47.6913      182
  3.4840   1.7420 101.0000 195.0000  17.5334  59.1729      183
  3.4840   1.7420 101.0000 200.0000  21.9053  66.3968      184
  3.4840   1.7420 101.0000 205.0000  26.4857  71.2965      185
  3.4840   1.7420 101.0000 210.0000  31.1826  74.8487      186
  3.4840   1.7420 101.0000 215.0000  35.9499  77.5678      187
  3.4840   1.7420 101.0000 220.0000  40.7625  79.7432      188
  3.4840   1.7420 101.0000 225.0000  45.6055  81.5483      189
  3.4840   1.7420 101.0000 230.0000  50.4697  83.0931      190
  3.4840   1.7420 101.0000 235.0000  55.3488  84.4505      191
  3.4840   1.7420 101.0000 240.0000  60.2387  85.6715      192
  3.4840   1.7420 101.0000 245.0000  65.1362  86.7928      193
  3.4840   1.7420 101.0000 250.0000  70.0389  87.8422      194
  3.4840   1.7420 101.0000 255.0000  74.9450  88.8417      195
  3.4840   1.7420 101.0000 260.0000  79.8527  89.8092      196
  3.4840   1.7420 101.0000 265.0000  84.7607  90.7605      197
  3.4840   1.7420 101.0000 270.0000  89.6677  91.7100      198
  3.4840   1.7420 101.0000 275.0000  85.4278 267.3284      199
  3.4840   1.7420 101.0000 280.0000  80.5272 266.3404      200
  3.4840   1.7420 101.0000 285.0000  75.6322 265.3103      201
  3.4840   1.7420 101.0000 290.0000  70.7445 264.2203      202
  3.4840   1.7420 101.0000 295.0000  65.8667 263.0490      203
  3.4840   1.7420 101.0000 300.0000  61.0015 261.7700      204
  3.4840   1.7420 101.0000 305.0000  56.1530 260.3491      205
  3.4840   1.7420 101.0000 310.0000  51.3262 258.7408      206
  3.4840   1.7420 101.0000 315.0000  46.5285 256.8825      207
  3.4840   1.7420 101.0000 320.0000  41.7702 254.6854      208
  3.4840   1.7420 101.0000 325.0000  37.0671 252.0190      209
  3.4840   1.7420 101.0000 330.0000  32.4435 248.6843      210
  3.4840   1.7420 101.0000 335.0000  27.9393 244.3668      211
  3.4840   1.7420 101.0000 340.0000  23.6231 238.5529      212
  3.4840   1.7420 101.0000 345.0000  19.6200 230.3937      213
  3.4840   1.7420 101.0000 350.0000  16.1644 218.5693      214
  3.4840   1.7420 101.0000 355.0000  13.6781 201.6172      215
  3.4840   1.7420 106.0000   0.0000  17.7420 180.0000      216
  3.4840   1.7420 106.0000   5.0000  18.4170 163.9938      217
  3.4840   1.7420 106.0000  10.0000  20.3079 149.9932      218
  3.4840   1.7420 106.0000  15.0000  23.1178 138.7840      219
  3.4840   1.7420 106.0000  20.0000  26.5565 130.1237      220
  3.4840   1.7420 106.0000  25.0000  30.4109 123.4361      221
  3.4840   1.7420 106.0000  30.0000  34.5418 118.1863      222
  3.4840   1.7420 106.0000  35.0000  38.8604 113.9709      223
  3.4840   1.7420 106.0000  40.0000  43.3103 110.5044      224
  3.4840   1.7420 106.0000  45.0000  47.8541 107.5877      225
  3.4840   1.7420 106.0000  50.0000  52.4667 105.0802      226
  3.4840   1.7420 106.0000  55.0000  57.1308 102.8816      227
  3.4840   1.7420 106.0000  60.0000  61.8339 100.9181      228
  3.4840   1.7420 106.0000  65.0000  66.5668  99.1343      229
  3.4840   1.7420 106.0000  70.0000  71.3226  97.4877      230
  3.4840   1.7420 106.0000  75.0000  76.0958  95.9444      231
  3.4840   1.7420 106.0000  80.0000  80.8822  94.4765      232
  3.4840   1.7420 106.0000  85.0000  85.6780  93.0602      233
  3.4840   1.7420 106.0000  90.0000  89.5199 268.3254      234
  3.4840   1.7420 106.0000  95.0000  84.7144 269.7003      235
  3.4840   1.7420 106.0000 100.0000  79.9083 271.0837      236
  3.4840   1.7420 106.0000 105.0000  75.1045 272.4960      237
  3.4840   1.7420 106.0000 110.0000  70.3059 273.9593      238
  3.4840   1.7420 106.0000 115.0000  65.5161 275.4992      239
  3.4840   1.7420 106.0000 120.0000  60.7391 277.1466      240
  3.4840   1.7420 106.0000 125.0000  55.9801 278.9402      241
  3.4840   1.7420 106.0000 130.0000  51.2458 280.9306      242
  3.4840   1.7420 106.0000 135.0000  46.5454 283.1862      243
  3.4840   1.7420 106.0000 140.0000  41.8917 285.8021      244
  3.4840   1.7420 106.0000 145.0000  37.3037 288.9156      245
  3.4840   1.7420 106.0000 150.0000  32.8101 292.7312      246
  3.4840   1.7420 106.0000 155.0000  28.4569 297.5614      247
  3.4840   1.7420 106.0000 160.0000  24.3210 303.8944      248
  3.4840   1.7420 106.0000 165.0000  20.5351 312.4815      249
  3.4840   1.7420 106.0000 170.0000  17.3310 324.3626      250
  3.4840   1.7420 106.0000 175.0000  15.0851 340.4437      251
  3.4840   1.7420 106.0000 180.0000  14.2580   0.0000      252
  3.4840   1.7420 106.0000 185.0000  15.0851  19.5563      253
  3.4840   1.7420 106.0000 190.0000  17.3310  35.6374      254
  3.4840   1.7420 106.0000 195.0000  20.5351  47.5185      255
  3.4840   1.7420 106.0000 200.0000  24.3210  56.1056      256
  3.4840   1.7420 106.0000 205.0000  28.4569  62.4386      257
  3.4840   1.7420 106.0000 210.0000  32.8101  67.2688      258
  3.4840   1.7420 106.0000 215.0000  37.3037  71.0844      259
  3.4840   1.7420 106.0000 220.0000  41.8917  74.1979      260
  3.4840   1.7420 106.0000 225.0000  46.5454  76.8138      261
  3.4840   1.7420 106.0000 230.0000  51.2458  79.0694      262
  3.4840   1.7420 106.0000 235.0000  55.9801  81.0598      263
  3.4840   1.7420 106.0000 240.0000  60.7391  82.8534      264
  3.4840   1.7420 106.0000 245.0000  65.5161  84.5008      265
  3.4840   1.7420 106.0000 250.0000  70.3059  86.0407      266
  3.4840   1.7420 106.0000 255.0000  75.1045  87.5040      267
  3.4840   1.7420 106.0000 260.0000  79.9083  88.9163      268
  3.4840   1.7420 106.0000 265.0000  84.7144  90.2997      269
  3.4840   1.7420 106.0000 270.0000  89.5199  91.6746      270
  3.4840   1.7420 106.0000 275.0000  85.6780 266.9398      271
  3.4840   1.7420 106.0000 280.0000  80.8822 265.5235      272
  3.4840   1.7420 106.0000 285.0000  76.0958 264.0556      273
  3.4840   1.7420 106.0000 290.0000  71.3226 262.5123      274
  3.4840   1.7420 106.0000 295.0000  66.5668 260.8657      275
  3.4840   1.7420 106.0000 300.0000  61.8339 259.0819      276
  3.4840   1.7420 106.0000 305.0000  57.1308 257.1184      277
  3.4840   1.7420 106.0000 310.0000  52.4667 254.9198      278
  3.4840   1.7420 106.0000 315.0000  47.8541 252.4123      279
  3.4840   1.7420 106.0000 320.0000  43.3103 249.4956      280
  3.4840   1.7420 106.0000 325.0000  38.8604 246.0291      281
  3.4840   1.7420 106.0000 330.0000  34.5418 241.8137      282
  3.4840   1.7420 106.0000 335.0000  30.4109 236.5639      283
  3.4840   1.7420 106.0000 340.0000  26.5565 229.8763      284
  3.4840   1.7420 106.0000 345.0000  23.1178 221.2160      285
  3.4840   1.7420 106.0000 350.0000  20.3079 210.0068      286
  3.4840   1.7420 106.0000 355.0000  18.4170 196.0062      287
  3.4840   1.7420 111.0000   0.0000  22.7420 180.0000      288
  3.4840   1.7420 111.0000   5.0000  23.2626 167.2572      289
  3.4840   1.7420 111.0000  10.0000  24.7589 155.5159      290
  3.4840   1.7420 111.0000  15.0000  27.0691 145.3550      291
  3.4840   1.7420 111.0000  20.0000  30.0053 136.8732      292
  3.4840   1.7420 111.0000  25.0000  33.4023 129.8857      293
  3.4840   1.7420 111.0000  30.0000  37.1330 124.1175      294
  3.4840   1.7420 111.0000  35.0000  41.1058 119.3057      295
  3.4840   1.7420 111.0000  40.0000  45.2561 115.2325      296
  3.4840   1.7420 111.0000  45.0000  49.5381 111.7284      297
  3.4840   1.7420 111.0000  50.0000  53.9194 108.6635      298
  3.4840   1.7420 111.0000  55.0000  58.3763 105.9390      299
  3.4840   1.7420 111.0000  60.0000  62.8913 103.4789      300
  3.4840   1.7420 111.0000  65.0000  67.4511 101.2238      301
  3.4840   1.7420 111.0000  70.0000  72.0455  99.1266      302
  3.4840   1.7420 111.0000  75.0000  76.6663  97.1487      303
  3.4840   1.7420 111.0000  80.0000  81.3067  95.2576      304
  3.4840   1.7420 111.0000  85.0000  85.9610  93.4253      305
  3.4840   1.7420 111.0000  90.0000  89.3758 268.3736      306
  3.4840   1.7420 111.0000  95.0000  84.7085 270.1634      307
  3.4840   1.7420 111.0000 100.0000  80.0416 271.9678      308
  3.4840   1.7420 111.0000 105.0000  75.3798 273.8120      309
  3.4840   1.7420 111.0000 110.0000  70.7282 275.7231      310
  3.4840   1.7420 111.0000 115.0000  66.0926 277.7324      311
  3.4840   1.7420 111.0000 120.0000  61.4798 279.8772      312
  3.4840   1.7420 111.0000 125.0000  56.8983 282.2034      313
  3.4840   1.7420 111.0000 130.0000  52.3591 284.7695      314
  3.4840   1.7420 111.0000 135.0000  47.8766 287.6518      315
